Wavelength;Reflectance;Sigma
350.00000;0.262741;0.02
351.00000;0.260162;0.02
352.00000;0.261496;0.02
353.00000;0.26094;0.02
354.00000;0.255325;0.02
355.00000;0.254811;0.02
356.00000;0.249547;0.02
357.00000;0.250597;0.02
358.00000;0.247867;0.02
359.00000;0.24103;0.02
360.00000;0.245001;0.02
361.00000;0.240839;0.02
362.00000;0.238193;0.02
363.00000;0.235173;0.02
364.00000;0.23858;0.02
365.00000;0.24023;0.02
366.00000;0.239297;0.02
367.00000;0.230886;0.02
368.00000;0.230019;0.02
369.00000;0.23022;0.02
370.00000;0.229912;0.02
371.00000;0.228423;0.02
372.00000;0.224493;0.02
373.00000;0.221639;0.02
374.00000;0.221529;0.02
375.00000;0.219834;0.02
376.00000;0.218531;0.02
377.00000;0.21746;0.02
378.00000;0.215228;0.02
379.00000;0.210165;0.02
380.00000;0.208008;0.02
381.00000;0.21169;0.02
382.00000;0.208118;0.02
383.00000;0.20822;0.02
384.00000;0.207983;0.02
385.00000;0.203624;0.02
386.00000;0.204561;0.02
387.00000;0.204002;0.02
388.00000;0.202852;0.02
389.00000;0.201227;0.02
390.00000;0.202462;0.02
391.00000;0.194405;0.02
392.00000;0.193234;0.02
393.00000;0.195332;0.02
394.00000;0.198382;0.02
395.00000;0.188877;0.02
396.00000;0.192071;0.02
397.00000;0.194542;0.02
398.00000;0.188746;0.02
399.00000;0.192345;0.02
400.00000;0.185996;0.02
401.00000;0.18952;0.02
402.00000;0.185129;0.02
403.00000;0.185014;0.02
404.00000;0.184523;0.02
405.00000;0.181713;0.02
406.00000;0.175788;0.02
407.00000;0.179354;0.02
408.00000;0.180826;0.02
409.00000;0.176167;0.02
410.00000;0.174507;0.02
411.00000;0.175003;0.02
412.00000;0.17361;0.02
413.00000;0.170957;0.02
414.00000;0.16943;0.02
415.00000;0.166451;0.02
416.00000;0.169173;0.02
417.00000;0.166901;0.02
418.00000;0.166264;0.02
419.00000;0.163971;0.02
420.00000;0.170201;0.02
421.00000;0.169898;0.02
422.00000;0.169428;0.02
423.00000;0.167258;0.02
424.00000;0.163573;0.02
425.00000;0.165498;0.02
426.00000;0.162815;0.02
427.00000;0.164032;0.02
428.00000;0.161227;0.02
429.00000;0.158877;0.02
430.00000;0.158641;0.02
431.00000;0.155814;0.02
432.00000;0.158813;0.02
433.00000;0.155849;0.02
434.00000;0.154155;0.02
435.00000;0.155679;0.02
436.00000;0.157399;0.02
437.00000;0.154918;0.02
438.00000;0.154633;0.02
439.00000;0.153984;0.02
440.00000;0.154193;0.02
441.00000;0.153438;0.02
442.00000;0.152409;0.02
443.00000;0.152054;0.02
444.00000;0.153799;0.02
445.00000;0.150817;0.02
446.00000;0.149485;0.02
447.00000;0.149221;0.02
448.00000;0.150318;0.02
449.00000;0.146888;0.02
450.00000;0.147572;0.02
451.00000;0.145192;0.02
452.00000;0.147547;0.02
453.00000;0.144422;0.02
454.00000;0.145;0.02
455.00000;0.143569;0.02
456.00000;0.144669;0.02
457.00000;0.144721;0.02
458.00000;0.146813;0.02
459.00000;0.14441;0.02
460.00000;0.145277;0.02
461.00000;0.142516;0.02
462.00000;0.145388;0.02
463.00000;0.14001;0.02
464.00000;0.142916;0.02
465.00000;0.140415;0.02
466.00000;0.140225;0.02
467.00000;0.140654;0.02
468.00000;0.13922;0.02
469.00000;0.14334;0.02
470.00000;0.141613;0.02
471.00000;0.140522;0.02
472.00000;0.143518;0.02
473.00000;0.136817;0.02
474.00000;0.140886;0.02
475.00000;0.136754;0.02
476.00000;0.138862;0.02
477.00000;0.138351;0.02
478.00000;0.135613;0.02
479.00000;0.140804;0.02
480.00000;0.137569;0.02
481.00000;0.138511;0.02
482.00000;0.135706;0.02
483.00000;0.137834;0.02
484.00000;0.139678;0.02
485.00000;0.137311;0.02
486.00000;0.137017;0.02
487.00000;0.138851;0.02
488.00000;0.139246;0.02
489.00000;0.139398;0.02
490.00000;0.139593;0.02
491.00000;0.137847;0.02
492.00000;0.143531;0.02
493.00000;0.140706;0.02
494.00000;0.141199;0.02
495.00000;0.1385;0.02
496.00000;0.141397;0.02
497.00000;0.137614;0.02
498.00000;0.138447;0.02
499.00000;0.135931;0.02
500.00000;0.136606;0.02
501.00000;0.140415;0.02
502.00000;0.140668;0.02
503.00000;0.140011;0.02
504.00000;0.139292;0.02
505.00000;0.135053;0.02
506.00000;0.1406;0.02
507.00000;0.139937;0.02
508.00000;0.140285;0.02
509.00000;0.138323;0.02
510.00000;0.140396;0.02
511.00000;0.143194;0.02
512.00000;0.142539;0.02
513.00000;0.143215;0.02
514.00000;0.14332;0.02
515.00000;0.14541;0.02
516.00000;0.141677;0.02
517.00000;0.143445;0.02
518.00000;0.142825;0.02
519.00000;0.146405;0.02
520.00000;0.144043;0.02
521.00000;0.144798;0.02
522.00000;0.146066;0.02
523.00000;0.143116;0.02
524.00000;0.144313;0.02
525.00000;0.144962;0.02
526.00000;0.144749;0.02
527.00000;0.146383;0.02
528.00000;0.150586;0.02
529.00000;0.146563;0.02
530.00000;0.153614;0.02
531.00000;0.150904;0.02
532.00000;0.148014;0.02
533.00000;0.152022;0.02
534.00000;0.153173;0.02
535.00000;0.153536;0.02
536.00000;0.154311;0.02
537.00000;0.156021;0.02
538.00000;0.155978;0.02
539.00000;0.158791;0.02
540.00000;0.162256;0.02
541.00000;0.165548;0.02
542.00000;0.16505;0.02
543.00000;0.16433;0.02
544.00000;0.169354;0.02
545.00000;0.165943;0.02
546.00000;0.167486;0.02
547.00000;0.167966;0.02
548.00000;0.170336;0.02
549.00000;0.171756;0.02
550.00000;0.177636;0.02
551.00000;0.179723;0.02
552.00000;0.182168;0.02
553.00000;0.180181;0.02
554.00000;0.18143;0.02
555.00000;0.188066;0.02
556.00000;0.189383;0.02
557.00000;0.190899;0.02
558.00000;0.19053;0.02
559.00000;0.190922;0.02
560.00000;0.195392;0.02
561.00000;0.199028;0.02
562.00000;0.20275;0.02
563.00000;0.203649;0.02
564.00000;0.204262;0.02
565.00000;0.20643;0.02
566.00000;0.208716;0.02
567.00000;0.210353;0.02
568.00000;0.212787;0.02
569.00000;0.209152;0.02
570.00000;0.213227;0.02
571.00000;0.221024;0.02
572.00000;0.218178;0.02
573.00000;0.220057;0.02
574.00000;0.217553;0.02
575.00000;0.22204;0.02
576.00000;0.226121;0.02
577.00000;0.231714;0.02
578.00000;0.234144;0.02
579.00000;0.23258;0.02
580.00000;0.240021;0.02
581.00000;0.247554;0.02
582.00000;0.249649;0.02
583.00000;0.259051;0.02
584.00000;0.257002;0.02
585.00000;0.260423;0.02
586.00000;0.264061;0.02
587.00000;0.260507;0.02
588.00000;0.262809;0.02
589.00000;0.259627;0.02
590.00000;0.262909;0.02
591.00000;0.270645;0.02
592.00000;0.271524;0.02
593.00000;0.278057;0.02
594.00000;0.275363;0.02
595.00000;0.277098;0.02
596.00000;0.284341;0.02
597.00000;0.280185;0.02
598.00000;0.283254;0.02
599.00000;0.28822;0.02
600.00000;0.287149;0.02
601.00000;0.299103;0.02
602.00000;0.297109;0.02
603.00000;0.306656;0.02
604.00000;0.302048;0.02
605.00000;0.305196;0.02
606.00000;0.309055;0.02
607.00000;0.30961;0.02
608.00000;0.319531;0.02
609.00000;0.317803;0.02
610.00000;0.316356;0.02
611.00000;0.318016;0.02
612.00000;0.325702;0.02
613.00000;0.323947;0.02
614.00000;0.328577;0.02
615.00000;0.328788;0.02
616.00000;0.331137;0.02
617.00000;0.339229;0.02
618.00000;0.335127;0.02
619.00000;0.336744;0.02
620.00000;0.334842;0.02
621.00000;0.341792;0.02
622.00000;0.338674;0.02
623.00000;0.344031;0.02
624.00000;0.341296;0.02
625.00000;0.343836;0.02
626.00000;0.342504;0.02
627.00000;0.3453;0.02
628.00000;0.31453;0.02
629.00000;0.336522;0.02
630.00000;0.340008;0.02
631.00000;0.3419;0.02
632.00000;0.343637;0.02
633.00000;0.346312;0.02
634.00000;0.353354;0.02
635.00000;0.354125;0.02
636.00000;0.358418;0.02
637.00000;0.363766;0.02
638.00000;0.369311;0.02
639.00000;0.374197;0.02
640.00000;0.378037;0.02
641.00000;0.37639;0.02
642.00000;0.374782;0.02
643.00000;0.376022;0.02
644.00000;0.3822;0.02
645.00000;0.378104;0.02
646.00000;0.373522;0.02
647.00000;0.378207;0.02
648.00000;0.367018;0.02
649.00000;0.377263;0.02
650.00000;0.385539;0.02
651.00000;0.384189;0.02
652.00000;0.379046;0.02
653.00000;0.385504;0.02
654.00000;0.389315;0.02
655.00000;0.390296;0.02
656.00000;0.390115;0.02
657.00000;0.400629;0.02
658.00000;0.403872;0.02
659.00000;0.404543;0.02
660.00000;0.407082;0.02
661.00000;0.404425;0.02
662.00000;0.410875;0.02
663.00000;0.414446;0.02
664.00000;0.412667;0.02
665.00000;0.411019;0.02
666.00000;0.414971;0.02
667.00000;0.413836;0.02
668.00000;0.417149;0.02
669.00000;0.42057;0.02
670.00000;0.419625;0.02
671.00000;0.424718;0.02
672.00000;0.421442;0.02
673.00000;0.421343;0.02
674.00000;0.420936;0.02
675.00000;0.426334;0.02
676.00000;0.428386;0.02
677.00000;0.429913;0.02
678.00000;0.432735;0.02
679.00000;0.440215;0.02
680.00000;0.437936;0.02
681.00000;0.434044;0.02
682.00000;0.441172;0.02
683.00000;0.433723;0.02
684.00000;0.440682;0.02
685.00000;0.442033;0.02
686.00000;0.439598;0.02
687.00000;0.338577;0.02
688.00000;0.359959;0.02
689.00000;0.357049;0.02
690.00000;0.367852;0.02
691.00000;0.395146;0.02
692.00000;0.40938;0.02
693.00000;0.413923;0.02
694.00000;0.413499;0.02
695.00000;0.422006;0.02
696.00000;0.424313;0.02
697.00000;0.444003;0.02
698.00000;0.434607;0.02
699.00000;0.424217;0.02
700.00000;0.439268;0.02
701.00000;0.435183;0.02
702.00000;0.435918;0.02
703.00000;0.448531;0.02
704.00000;0.444695;0.02
705.00000;0.446235;0.02
706.00000;0.449175;0.02
707.00000;0.455139;0.02
708.00000;0.451842;0.02
709.00000;0.458632;0.02
710.00000;0.451473;0.02
711.00000;0.458304;0.02
712.00000;0.466378;0.02
713.00000;0.462391;0.02
714.00000;0.459652;0.02
715.00000;0.45674;0.02
716.00000;0.449849;0.02
717.00000;0.426455;0.02
718.00000;0.414036;0.02
719.00000;0.412419;0.02
720.00000;0.397576;0.02
721.00000;0.434983;0.02
722.00000;0.454439;0.02
723.00000;0.447013;0.02
724.00000;0.419816;0.02
725.00000;0.426724;0.02
726.00000;0.430305;0.02
727.00000;0.426177;0.02
728.00000;0.428542;0.02
729.00000;0.437841;0.02
730.00000;0.435434;0.02
731.00000;0.434037;0.02
732.00000;0.447238;0.02
733.00000;0.464481;0.02
734.00000;0.468866;0.02
735.00000;0.468073;0.02
736.00000;0.462195;0.02
737.00000;0.469675;0.02
738.00000;0.475299;0.02
739.00000;0.474695;0.02
740.00000;0.484411;0.02
741.00000;0.482779;0.02
742.00000;0.489216;0.02
743.00000;0.493645;0.02
744.00000;0.494762;0.02
745.00000;0.494428;0.02
746.00000;0.501276;0.02
747.00000;0.492552;0.02
748.00000;0.493929;0.02
749.00000;0.497013;0.02
750.00000;0.496832;0.02
751.00000;0.499076;0.02
752.00000;0.494494;0.02
753.00000;0.499763;0.02
754.00000;0.500513;0.02
755.00000;0.495095;0.02
756.00000;0.495977;0.02
757.00000;0.503154;0.02
758.00000;0.496514;0.02
759.00000;0.431579;0.02
760.00000;0.106395;0.02
761.00000;0.0848083;0.02
762.00000;0.235142;0.02
763.00000;0.180379;0.02
764.00000;0.204573;0.02
765.00000;0.274128;0.02
766.00000;0.369854;0.02
767.00000;0.4092;0.02
768.00000;0.447355;0.02
769.00000;0.478917;0.02
770.00000;0.492784;0.02
771.00000;0.498363;0.02
772.00000;0.503084;0.02
773.00000;0.507791;0.02
774.00000;0.506364;0.02
775.00000;0.50662;0.02
776.00000;0.505269;0.02
777.00000;0.504068;0.02
778.00000;0.507557;0.02
779.00000;0.506225;0.02
780.00000;0.506604;0.02
781.00000;0.507686;0.02
782.00000;0.50535;0.02
783.00000;0.505207;0.02
784.00000;0.498498;0.02
785.00000;0.50276;0.02
786.00000;0.496235;0.02
787.00000;0.499186;0.02
788.00000;0.491863;0.02
789.00000;0.479569;0.02
790.00000;0.488896;0.02
791.00000;0.486407;0.02
792.00000;0.487774;0.02
793.00000;0.493436;0.02
794.00000;0.492737;0.02
795.00000;0.490216;0.02
796.00000;0.486182;0.02
797.00000;0.478945;0.02
798.00000;0.48849;0.02
799.00000;0.489652;0.02
800.00000;0.48445;0.02
801.00000;0.487199;0.02
802.00000;0.480483;0.02
803.00000;0.484953;0.02
804.00000;0.482355;0.02
805.00000;0.489413;0.02
806.00000;0.488078;0.02
807.00000;0.490084;0.02
808.00000;0.489512;0.02
809.00000;0.484336;0.02
810.00000;0.488107;0.02
811.00000;0.481292;0.02
812.00000;0.477666;0.02
813.00000;0.469162;0.02
814.00000;0.462953;0.02
815.00000;0.450131;0.02
816.00000;0.442705;0.02
817.00000;0.434859;0.02
818.00000;0.443093;0.02
819.00000;0.439634;0.02
820.00000;0.458923;0.02
821.00000;0.471654;0.02
822.00000;0.459406;0.02
823.00000;0.425002;0.02
824.00000;0.451216;0.02
825.00000;0.473746;0.02
826.00000;0.467662;0.02
827.00000;0.465087;0.02
828.00000;0.454883;0.02
829.00000;0.459287;0.02
830.00000;0.459268;0.02
831.00000;0.467191;0.02
832.00000;0.464354;0.02
833.00000;0.469876;0.02
834.00000;0.467611;0.02
835.00000;0.477182;0.02
836.00000;0.475387;0.02
837.00000;0.471562;0.02
838.00000;0.47619;0.02
839.00000;0.475945;0.02
840.00000;0.48152;0.02
841.00000;0.476835;0.02
842.00000;0.478702;0.02
843.00000;0.48715;0.02
844.00000;0.487183;0.02
845.00000;0.485884;0.02
846.00000;0.487009;0.02
847.00000;0.485228;0.02
848.00000;0.486382;0.02
849.00000;0.486864;0.02
850.00000;0.483978;0.02
851.00000;0.480744;0.02
852.00000;0.483731;0.02
853.00000;0.482024;0.02
854.00000;0.485077;0.02
855.00000;0.48667;0.02
856.00000;0.491767;0.02
857.00000;0.482679;0.02
858.00000;0.486605;0.02
859.00000;0.486158;0.02
860.00000;0.492752;0.02
861.00000;0.490563;0.02
862.00000;0.496766;0.02
863.00000;0.489869;0.02
864.00000;0.494777;0.02
865.00000;0.487689;0.02
866.00000;0.492861;0.02
867.00000;0.492263;0.02
868.00000;0.493331;0.02
869.00000;0.492697;0.02
870.00000;0.491224;0.02
871.00000;0.492013;0.02
872.00000;0.495965;0.02
873.00000;0.492816;0.02
874.00000;0.491302;0.02
875.00000;0.487207;0.02
876.00000;0.488301;0.02
877.00000;0.492259;0.02
878.00000;0.489745;0.02
879.00000;0.4853;0.02
880.00000;0.488356;0.02
881.00000;0.486461;0.02
882.00000;0.492269;0.02
883.00000;0.489503;0.02
884.00000;0.487922;0.02
885.00000;0.485902;0.02
886.00000;0.497052;0.02
887.00000;0.485368;0.02
888.00000;0.48746;0.02
889.00000;0.488111;0.02
890.00000;0.493165;0.02
891.00000;0.487209;0.02
892.00000;0.486608;0.02
893.00000;0.472866;0.02
894.00000;0.466459;0.02
895.00000;0.455131;0.02
896.00000;0.439234;0.02
897.00000;0.425843;0.02
898.00000;0.413838;0.02
899.00000;0.397686;0.02
900.00000;0.403968;0.02
901.00000;0.400375;0.02
902.00000;0.407821;0.02
903.00000;0.425293;0.02
904.00000;0.454292;0.02
905.00000;0.442709;0.02
906.00000;0.435424;0.02
907.00000;0.41416;0.02
908.00000;0.403506;0.02
909.00000;0.405122;0.02
910.00000;0.411693;0.02
911.00000;0.410581;0.02
912.00000;0.410184;0.02
913.00000;0.392445;0.02
914.00000;0.402518;0.02
915.00000;0.4144;0.02
916.00000;0.41309;0.02
917.00000;0.418643;0.02
918.00000;0.421061;0.02
919.00000;0.435427;0.02
920.00000;0.454897;0.02
921.00000;0.446198;0.02
922.00000;0.452377;0.02
923.00000;0.451092;0.02
924.00000;0.444561;0.02
925.00000;0.436797;0.02
926.00000;0.437751;0.02
927.00000;0.424548;0.02
928.00000;0.413489;0.02
929.00000;0.392848;0.02
930.00000;0.361266;0.02
931.00000;0.339422;0.02
932.00000;0.295685;0.02
933.00000;0.263137;0.02
934.00000;0.223398;0.02
935.00000;0.223431;0.02
936.00000;0.235868;0.02
937.00000;0.231499;0.02
938.00000;0.269458;0.02
939.00000;0.36247;0.02
940.00000;0.374663;0.02
941.00000;0.365536;0.02
942.00000;0.341779;0.02
943.00000;0.292702;0.02
944.00000;0.287921;0.02
945.00000;0.30801;0.02
946.00000;0.309119;0.02
947.00000;0.324005;0.02
948.00000;0.332284;0.02
949.00000;0.329502;0.02
950.00000;0.336159;0.02
951.00000;0.351279;0.02
952.00000;0.336159;0.02
953.00000;0.349562;0.02
954.00000;0.363509;0.02
955.00000;0.346585;0.02
956.00000;0.350389;0.02
957.00000;0.387034;0.02
958.00000;0.395813;0.02
959.00000;0.385409;0.02
960.00000;0.3905;0.02
961.00000;0.38134;0.02
962.00000;0.38622;0.02
963.00000;0.409853;0.02
964.00000;0.406803;0.02
965.00000;0.411091;0.02
966.00000;0.417984;0.02
967.00000;0.421489;0.02
968.00000;0.449898;0.02
969.00000;0.465752;0.02
970.00000;0.466307;0.02
971.00000;0.467952;0.02
972.00000;0.464374;0.02
973.00000;0.455955;0.02
974.00000;0.446193;0.02
975.00000;0.440851;0.02
976.00000;0.448768;0.02
977.00000;0.460776;0.02
978.00000;0.465394;0.02
979.00000;0.46848;0.02
980.00000;0.481733;0.02
981.00000;0.481116;0.02
982.00000;0.480516;0.02
983.00000;0.482254;0.02
984.00000;0.499206;0.02
985.00000;0.499842;0.02
986.00000;0.509013;0.02
987.00000;0.50726;0.02
988.00000;0.512619;0.02
989.00000;0.514912;0.02
990.00000;0.515589;0.02
991.00000;0.514956;0.02
992.00000;0.516333;0.02
993.00000;0.513665;0.02
994.00000;0.517642;0.02
995.00000;0.519918;0.02
996.00000;0.524183;0.02
997.00000;0.523057;0.02
998.00000;0.520664;0.02
999.00000;0.518044;0.02
1000.00000;0.522327;0.02
1001.00000;0.52021;0.02
1002.00000;0.511324;0.02
1003.00000;0.514768;0.02
1004.00000;0.520732;0.02
1005.00000;0.515827;0.02
1006.00000;0.513332;0.02
1007.00000;0.516966;0.02
1008.00000;0.512306;0.02
1009.00000;0.507269;0.02
1010.00000;0.509673;0.02
1011.00000;0.515815;0.02
1012.00000;0.518004;0.02
1013.00000;0.518915;0.02
1014.00000;0.522141;0.02
1015.00000;0.512145;0.02
1016.00000;0.519921;0.02
1017.00000;0.515518;0.02
1018.00000;0.518367;0.02
1019.00000;0.517813;0.02
1020.00000;0.520499;0.02
1021.00000;0.525009;0.02
1022.00000;0.522201;0.02
1023.00000;0.517645;0.02
1024.00000;0.518168;0.02
1025.00000;0.520519;0.02
1026.00000;0.523875;0.02
1027.00000;0.525768;0.02
1028.00000;0.526337;0.02
1029.00000;0.525502;0.02
1030.00000;0.523179;0.02
1031.00000;0.531358;0.02
1032.00000;0.526534;0.02
1033.00000;0.529778;0.02
1034.00000;0.52838;0.02
1035.00000;0.528403;0.02
1036.00000;0.528097;0.02
1037.00000;0.540373;0.02
1038.00000;0.537087;0.02
1039.00000;0.531326;0.02
1040.00000;0.528951;0.02
1041.00000;0.531587;0.02
1042.00000;0.531609;0.02
1043.00000;0.531776;0.02
1044.00000;0.530787;0.02
1045.00000;0.540352;0.02
1046.00000;0.533313;0.02
1047.00000;0.527003;0.02
1048.00000;0.527551;0.02
1049.00000;0.531429;0.02
1050.00000;0.530517;0.02
1051.00000;0.533798;0.02
1052.00000;0.531256;0.02
1053.00000;0.533808;0.02
1054.00000;0.532764;0.02
1055.00000;0.532957;0.02
1056.00000;0.532958;0.02
1057.00000;0.529913;0.02
1058.00000;0.527833;0.02
1059.00000;0.534146;0.02
1060.00000;0.528592;0.02
1061.00000;0.530102;0.02
1062.00000;0.526911;0.02
1063.00000;0.52754;0.02
1064.00000;0.529951;0.02
1065.00000;0.529106;0.02
1066.00000;0.530439;0.02
1067.00000;0.529131;0.02
1068.00000;0.522452;0.02
1069.00000;0.524651;0.02
1070.00000;0.529286;0.02
1071.00000;0.523644;0.02
1072.00000;0.526819;0.02
1073.00000;0.521643;0.02
1074.00000;0.528059;0.02
1075.00000;0.529866;0.02
1076.00000;0.533039;0.02
1077.00000;0.536506;0.02
1078.00000;0.53337;0.02
1079.00000;0.529911;0.02
1080.00000;0.531683;0.02
1081.00000;0.525292;0.02
1082.00000;0.529003;0.02
1083.00000;0.528704;0.02
1084.00000;0.519709;0.02
1085.00000;0.521553;0.02
1086.00000;0.521889;0.02
1087.00000;0.525617;0.02
1088.00000;0.524011;0.02
1089.00000;0.514546;0.02
1090.00000;0.514224;0.02
1091.00000;0.51545;0.02
1092.00000;0.506419;0.02
1093.00000;0.504471;0.02
1094.00000;0.495306;0.02
1095.00000;0.494067;0.02
1096.00000;0.498379;0.02
1097.00000;0.494819;0.02
1098.00000;0.468181;0.02
1099.00000;0.446476;0.02
1100.00000;0.448671;0.02
1101.00000;0.453009;0.02
1102.00000;0.452575;0.02
1103.00000;0.455968;0.02
1104.00000;0.451541;0.02
1105.00000;0.443175;0.02
1106.00000;0.437198;0.02
1107.00000;0.441551;0.02
1108.00000;0.434312;0.02
1109.00000;0.447534;0.02
1110.00000;0.448382;0.02
1111.00000;0.445357;0.02
1112.00000;0.422362;0.02
1113.00000;0.405218;0.02
1114.00000;0.397037;0.02
1115.00000;0.370478;0.02
1116.00000;0.351882;0.02
1117.00000;0.297866;0.02
1118.00000;0.253746;0.02
1119.00000;0.233761;0.02
1120.00000;0.201557;0.02
1121.00000;0.196249;0.02
1122.00000;0.171419;0.02
1123.00000;0.185324;0.02
1124.00000;0.195298;0.02
1125.00000;0.190754;0.02
1126.00000;0.188933;0.02
1127.00000;0.191254;0.02
1128.00000;0.191839;0.02
1129.00000;0.220033;0.02
1130.00000;0.289446;0.02
1131.00000;0.3195;0.02
1132.00000;0.288901;0.02
1133.00000;0.235617;0.02
1134.00000;0.153841;0.02
1135.00000;0.160769;0.02
1136.00000;0.243246;0.02
1137.00000;0.293045;0.02
1138.00000;0.345899;0.02
1139.00000;0.356926;0.02
1140.00000;0.349526;0.02
1141.00000;0.333137;0.02
1142.00000;0.325876;0.02
1143.00000;0.307841;0.02
1144.00000;0.275719;0.02
1145.00000;0.245126;0.02
1146.00000;0.255092;0.02
1147.00000;0.280777;0.02
1148.00000;0.306575;0.02
1149.00000;0.316726;0.02
1150.00000;0.316018;0.02
1151.00000;0.331494;0.02
1152.00000;0.334527;0.02
1153.00000;0.347561;0.02
1154.00000;0.350449;0.02
1155.00000;0.365763;0.02
1156.00000;0.382823;0.02
1157.00000;0.421392;0.02
1158.00000;0.435356;0.02
1159.00000;0.449615;0.02
1160.00000;0.457976;0.02
1161.00000;0.47175;0.02
1162.00000;0.485252;0.02
1163.00000;0.498991;0.02
1164.00000;0.505629;0.02
1165.00000;0.503479;0.02
1166.00000;0.503576;0.02
1167.00000;0.510459;0.02
1168.00000;0.50765;0.02
1169.00000;0.509915;0.02
1170.00000;0.510453;0.02
1171.00000;0.519104;0.02
1172.00000;0.517822;0.02
1173.00000;0.51284;0.02
1174.00000;0.511793;0.02
1175.00000;0.523186;0.02
1176.00000;0.52996;0.02
1177.00000;0.525138;0.02
1178.00000;0.520079;0.02
1179.00000;0.513383;0.02
1180.00000;0.516672;0.02
1181.00000;0.505828;0.02
1182.00000;0.50361;0.02
1183.00000;0.504004;0.02
1184.00000;0.502363;0.02
1185.00000;0.517947;0.02
1186.00000;0.509055;0.02
1187.00000;0.503198;0.02
1188.00000;0.500704;0.02
1189.00000;0.508358;0.02
1190.00000;0.522654;0.02
1191.00000;0.531294;0.02
1192.00000;0.538404;0.02
1193.00000;0.538903;0.02
1194.00000;0.539545;0.02
1195.00000;0.531846;0.02
1196.00000;0.53007;0.02
1197.00000;0.529663;0.02
1198.00000;0.527866;0.02
1199.00000;0.523961;0.02
1200.00000;0.52811;0.02
1201.00000;0.522439;0.02
1202.00000;0.525354;0.02
1203.00000;0.516563;0.02
1204.00000;0.515333;0.02
1205.00000;0.533136;0.02
1206.00000;0.535196;0.02
1207.00000;0.539864;0.02
1208.00000;0.537926;0.02
1209.00000;0.536326;0.02
1210.00000;0.52825;0.02
1211.00000;0.533494;0.02
1212.00000;0.532168;0.02
1213.00000;0.539155;0.02
1214.00000;0.543092;0.02
1215.00000;0.544493;0.02
1216.00000;0.547471;0.02
1217.00000;0.553574;0.02
1218.00000;0.546864;0.02
1219.00000;0.549791;0.02
1220.00000;0.553792;0.02
1221.00000;0.55067;0.02
1222.00000;0.557818;0.02
1223.00000;0.552071;0.02
1224.00000;0.55817;0.02
1225.00000;0.561329;0.02
1226.00000;0.566425;0.02
1227.00000;0.559783;0.02
1228.00000;0.562958;0.02
1229.00000;0.574056;0.02
1230.00000;0.573483;0.02
1231.00000;0.572705;0.02
1232.00000;0.568828;0.02
1233.00000;0.574911;0.02
1234.00000;0.573153;0.02
1235.00000;0.580222;0.02
1236.00000;0.576608;0.02
1237.00000;0.581229;0.02
1238.00000;0.578041;0.02
1239.00000;0.573813;0.02
1240.00000;0.573857;0.02
1241.00000;0.57822;0.02
1242.00000;0.580458;0.02
1243.00000;0.574157;0.02
1244.00000;0.576032;0.02
1245.00000;0.567493;0.02
1246.00000;0.569308;0.02
1247.00000;0.567337;0.02
1248.00000;0.560457;0.02
1249.00000;0.557182;0.02
1250.00000;0.559024;0.02
1251.00000;0.560135;0.02
1252.00000;0.559772;0.02
1253.00000;0.546788;0.02
1254.00000;0.549618;0.02
1255.00000;0.545431;0.02
1256.00000;0.537559;0.02
1257.00000;0.531972;0.02
1258.00000;0.520695;0.02
1259.00000;0.512891;0.02
1260.00000;0.506065;0.02
1261.00000;0.48944;0.02
1262.00000;0.474986;0.02
1263.00000;0.470383;0.02
1264.00000;0.468027;0.02
1265.00000;0.460064;0.02
1266.00000;0.456023;0.02
1267.00000;0.452823;0.02
1268.00000;0.444579;0.02
1269.00000;0.4422;0.02
1270.00000;0.459964;0.02
1271.00000;0.473889;0.02
1272.00000;0.482788;0.02
1273.00000;0.490635;0.02
1274.00000;0.501925;0.02
1275.00000;0.51144;0.02
1276.00000;0.512406;0.02
1277.00000;0.513773;0.02
1278.00000;0.524857;0.02
1279.00000;0.524165;0.02
1280.00000;0.532783;0.02
1281.00000;0.538106;0.02
1282.00000;0.543776;0.02
1283.00000;0.542346;0.02
1284.00000;0.546257;0.02
1285.00000;0.553015;0.02
1286.00000;0.549817;0.02
1287.00000;0.54607;0.02
1288.00000;0.538727;0.02
1289.00000;0.540721;0.02
1290.00000;0.546595;0.02
1291.00000;0.543808;0.02
1292.00000;0.553613;0.02
1293.00000;0.548197;0.02
1294.00000;0.546914;0.02
1295.00000;0.54396;0.02
1296.00000;0.536374;0.02
1297.00000;0.534194;0.02
1298.00000;0.533057;0.02
1299.00000;0.537277;0.02
1300.00000;0.538114;0.02
1301.00000;0.53073;0.02
1302.00000;0.527624;0.02
1303.00000;0.515631;0.02
1304.00000;0.518838;0.02
1305.00000;0.514879;0.02
1306.00000;0.510612;0.02
1307.00000;0.510051;0.02
1308.00000;0.509118;0.02
1309.00000;0.494036;0.02
1310.00000;0.496316;0.02
1311.00000;0.49309;0.02
1312.00000;0.485618;0.02
1313.00000;0.474459;0.02
1314.00000;0.469323;0.02
1315.00000;0.469189;0.02
1316.00000;0.478298;0.02
1317.00000;0.478042;0.02
1318.00000;0.472548;0.02
1319.00000;0.45338;0.02
1320.00000;0.438629;0.02
1321.00000;0.433552;0.02
1322.00000;0.438648;0.02
1323.00000;0.455591;0.02
1324.00000;0.460561;0.02
1325.00000;0.451599;0.02
1326.00000;0.445831;0.02
1327.00000;0.42316;0.02
1328.00000;0.395489;0.02
1329.00000;0.336373;0.02
1330.00000;0.313712;0.02
1331.00000;0.299941;0.02
1332.00000;0.304268;0.02
1333.00000;0.319864;0.02
1334.00000;0.339203;0.02
1335.00000;0.351336;0.02
1336.00000;0.355151;0.02
1337.00000;0.357109;0.02
1338.00000;0.366855;0.02
1339.00000;0.372399;0.02
1340.00000;0.384537;0.02
1341.00000;0.379217;0.02
1342.00000;0.380721;0.02
1343.00000;0.35441;0.02
1344.00000;0.327298;0.02
1345.00000;0.24899;0.02
1346.00000;0.195692;0.02
1347.00000;0.166668;0.02
1348.00000;0.127271;0.02
1349.00000;0.113363;0.02
1350.00000;0.0792047;0.02
1351.00000;0.0638689;0.02
1352.00000;0.0397616;0.02
1353.00000;0.0219425;0.02
1354.00000;0.0151265;0.02
1355.00000;0.0102045;0.02
1356.00000;0.00626718;0.02
1357.00000;0.00332918;0.02
1358.00000;0.00214234;0.02
1359.00000;0.000911254;0.02
1360.00000;0.000700987;0.02
1361.00000;0.000730608;0.02
1362.00000;0.000646219;0.02
1363.00000;0.000737677;0.02
1364.00000;0.000626517;0.02
1365.00000;0.000970534;0.02
1366.00000;0.000959717;0.02
1367.00000;0.000863202;0.02
1368.00000;0.000702159;0.02
1369.00000;0.000762296;0.02
1370.00000;0.00117773;0.02
1371.00000;0.00253561;0.02
1372.00000;0.00634352;0.02
1373.00000;0.0116435;0.02
1374.00000;0.0155501;0.02
1375.00000;0.0179138;0.02
1376.00000;0.016251;0.02
1377.00000;0.0131442;0.02
1378.00000;0.00827067;0.02
1379.00000;0.00442321;0.02
1380.00000;0.00192956;0.02
1381.00000;0.000989188;0.02
1382.00000;0.000777677;0.02
1383.00000;0.000730218;0.02
1384.00000;0.00100815;0.02
1385.00000;0.00165681;0.02
1386.00000;0.0029329;0.02
1387.00000;0.00814359;0.02
1388.00000;0.0131114;0.02
1389.00000;0.0164933;0.02
1390.00000;0.0172136;0.02
1391.00000;0.0152493;0.02
1392.00000;0.00965612;0.02
1393.00000;0.00629195;0.02
1394.00000;0.00403218;0.02
1395.00000;0.00501935;0.02
1396.00000;0.00815849;0.02
1397.00000;0.0128068;0.02
1398.00000;0.0131855;0.02
1399.00000;0.0117536;0.02
1400.00000;0.0110491;0.02
1401.00000;0.012272;0.02
1402.00000;0.0169841;0.02
1403.00000;0.0223826;0.02
1404.00000;0.0205534;0.02
1405.00000;0.0219707;0.02
1406.00000;0.01948;0.02
1407.00000;0.0210539;0.02
1408.00000;0.0282669;0.02
1409.00000;0.0371452;0.02
1410.00000;0.0513982;0.02
1411.00000;0.0683853;0.02
1412.00000;0.0668885;0.02
1413.00000;0.0789114;0.02
1414.00000;0.0748035;0.02
1415.00000;0.0872924;0.02
1416.00000;0.0972801;0.02
1417.00000;0.102947;0.02
1418.00000;0.102658;0.02
1419.00000;0.106352;0.02
1420.00000;0.110404;0.02
1421.00000;0.127281;0.02
1422.00000;0.135523;0.02
1423.00000;0.13838;0.02
1424.00000;0.135451;0.02
1425.00000;0.133493;0.02
1426.00000;0.135833;0.02
1427.00000;0.14204;0.02
1428.00000;0.14574;0.02
1429.00000;0.154321;0.02
1430.00000;0.147695;0.02
1431.00000;0.132466;0.02
1432.00000;0.123589;0.02
1433.00000;0.122716;0.02
1434.00000;0.119618;0.02
1435.00000;0.130876;0.02
1436.00000;0.135558;0.02
1437.00000;0.136369;0.02
1438.00000;0.148633;0.02
1439.00000;0.152814;0.02
1440.00000;0.158858;0.02
1441.00000;0.161703;0.02
1442.00000;0.159347;0.02
1443.00000;0.161512;0.02
1444.00000;0.16675;0.02
1445.00000;0.168182;0.02
1446.00000;0.178797;0.02
1447.00000;0.188256;0.02
1448.00000;0.189948;0.02
1449.00000;0.185808;0.02
1450.00000;0.177189;0.02
1451.00000;0.182141;0.02
1452.00000;0.19739;0.02
1453.00000;0.225728;0.02
1454.00000;0.256905;0.02
1455.00000;0.279836;0.02
1456.00000;0.30285;0.02
1457.00000;0.302275;0.02
1458.00000;0.303478;0.02
1459.00000;0.290918;0.02
1460.00000;0.274344;0.02
1461.00000;0.270681;0.02
1462.00000;0.255544;0.02
1463.00000;0.251306;0.02
1464.00000;0.249216;0.02
1465.00000;0.235085;0.02
1466.00000;0.219162;0.02
1467.00000;0.214045;0.02
1468.00000;0.200878;0.02
1469.00000;0.183508;0.02
1470.00000;0.176271;0.02
1471.00000;0.196252;0.02
1472.00000;0.223735;0.02
1473.00000;0.260466;0.02
1474.00000;0.296964;0.02
1475.00000;0.294951;0.02
1476.00000;0.297739;0.02
1477.00000;0.282879;0.02
1478.00000;0.27151;0.02
1479.00000;0.259853;0.02
1480.00000;0.264974;0.02
1481.00000;0.281585;0.02
1482.00000;0.297245;0.02
1483.00000;0.300887;0.02
1484.00000;0.302179;0.02
1485.00000;0.300991;0.02
1486.00000;0.31274;0.02
1487.00000;0.34132;0.02
1488.00000;0.33836;0.02
1489.00000;0.375886;0.02
1490.00000;0.40447;0.02
1491.00000;0.424128;0.02
1492.00000;0.422816;0.02
1493.00000;0.427363;0.02
1494.00000;0.430098;0.02
1495.00000;0.437492;0.02
1496.00000;0.455178;0.02
1497.00000;0.451193;0.02
1498.00000;0.469893;0.02
1499.00000;0.479522;0.02
1500.00000;0.493127;0.02
1501.00000;0.489247;0.02
1502.00000;0.488419;0.02
1503.00000;0.480179;0.02
1504.00000;0.485927;0.02
1505.00000;0.498098;0.02
1506.00000;0.498669;0.02
1507.00000;0.506102;0.02
1508.00000;0.514965;0.02
1509.00000;0.515592;0.02
1510.00000;0.520144;0.02
1511.00000;0.526551;0.02
1512.00000;0.524544;0.02
1513.00000;0.535977;0.02
1514.00000;0.523057;0.02
1515.00000;0.533739;0.02
1516.00000;0.533413;0.02
1517.00000;0.537658;0.02
1518.00000;0.544229;0.02
1519.00000;0.55337;0.02
1520.00000;0.556401;0.02
1521.00000;0.559613;0.02
1522.00000;0.563024;0.02
1523.00000;0.568013;0.02
1524.00000;0.565484;0.02
1525.00000;0.561988;0.02
1526.00000;0.561163;0.02
1527.00000;0.563279;0.02
1528.00000;0.562953;0.02
1529.00000;0.568183;0.02
1530.00000;0.567937;0.02
1531.00000;0.572501;0.02
1532.00000;0.568702;0.02
1533.00000;0.57006;0.02
1534.00000;0.570543;0.02
1535.00000;0.570416;0.02
1536.00000;0.567358;0.02
1537.00000;0.569456;0.02
1538.00000;0.571317;0.02
1539.00000;0.574165;0.02
1540.00000;0.578579;0.02
1541.00000;0.578181;0.02
1542.00000;0.579556;0.02
1543.00000;0.579951;0.02
1544.00000;0.57953;0.02
1545.00000;0.58875;0.02
1546.00000;0.587892;0.02
1547.00000;0.59253;0.02
1548.00000;0.594574;0.02
1549.00000;0.59369;0.02
1550.00000;0.59446;0.02
1551.00000;0.594578;0.02
1552.00000;0.597221;0.02
1553.00000;0.596618;0.02
1554.00000;0.601171;0.02
1555.00000;0.595929;0.02
1556.00000;0.599245;0.02
1557.00000;0.601793;0.02
1558.00000;0.600943;0.02
1559.00000;0.598842;0.02
1560.00000;0.600353;0.02
1561.00000;0.597959;0.02
1562.00000;0.59799;0.02
1563.00000;0.594826;0.02
1564.00000;0.594336;0.02
1565.00000;0.58561;0.02
1566.00000;0.586714;0.02
1567.00000;0.572896;0.02
1568.00000;0.562647;0.02
1569.00000;0.544198;0.02
1570.00000;0.536911;0.02
1571.00000;0.53596;0.02
1572.00000;0.531579;0.02
1573.00000;0.537009;0.02
1574.00000;0.545196;0.02
1575.00000;0.550649;0.02
1576.00000;0.542979;0.02
1577.00000;0.54263;0.02
1578.00000;0.549821;0.02
1579.00000;0.552543;0.02
1580.00000;0.557128;0.02
1581.00000;0.557636;0.02
1582.00000;0.570428;0.02
1583.00000;0.57933;0.02
1584.00000;0.587159;0.02
1585.00000;0.58403;0.02
1586.00000;0.591189;0.02
1587.00000;0.593167;0.02
1588.00000;0.596433;0.02
1589.00000;0.59684;0.02
1590.00000;0.597386;0.02
1591.00000;0.599822;0.02
1592.00000;0.594058;0.02
1593.00000;0.598127;0.02
1594.00000;0.58984;0.02
1595.00000;0.590908;0.02
1596.00000;0.588968;0.02
1597.00000;0.581372;0.02
1598.00000;0.5684;0.02
1599.00000;0.552445;0.02
1600.00000;0.547543;0.02
1601.00000;0.5468;0.02
1602.00000;0.544971;0.02
1603.00000;0.547022;0.02
1604.00000;0.552739;0.02
1605.00000;0.548494;0.02
1606.00000;0.549222;0.02
1607.00000;0.550863;0.02
1608.00000;0.550147;0.02
1609.00000;0.551035;0.02
1610.00000;0.55039;0.02
1611.00000;0.557421;0.02
1612.00000;0.567114;0.02
1613.00000;0.572449;0.02
1614.00000;0.568874;0.02
1615.00000;0.575556;0.02
1616.00000;0.584917;0.02
1617.00000;0.592059;0.02
1618.00000;0.587816;0.02
1619.00000;0.594863;0.02
1620.00000;0.597289;0.02
1621.00000;0.599549;0.02
1622.00000;0.607288;0.02
1623.00000;0.604743;0.02
1624.00000;0.610043;0.02
1625.00000;0.609989;0.02
1626.00000;0.60432;0.02
1627.00000;0.608639;0.02
1628.00000;0.608582;0.02
1629.00000;0.598386;0.02
1630.00000;0.599499;0.02
1631.00000;0.609142;0.02
1632.00000;0.598973;0.02
1633.00000;0.60165;0.02
1634.00000;0.603542;0.02
1635.00000;0.601639;0.02
1636.00000;0.594119;0.02
1637.00000;0.592451;0.02
1638.00000;0.590293;0.02
1639.00000;0.586385;0.02
1640.00000;0.582642;0.02
1641.00000;0.577901;0.02
1642.00000;0.586653;0.02
1643.00000;0.579846;0.02
1644.00000;0.586367;0.02
1645.00000;0.583555;0.02
1646.00000;0.586354;0.02
1647.00000;0.582662;0.02
1648.00000;0.585701;0.02
1649.00000;0.582196;0.02
1650.00000;0.582207;0.02
1651.00000;0.58474;0.02
1652.00000;0.586805;0.02
1653.00000;0.592171;0.02
1654.00000;0.592068;0.02
1655.00000;0.589116;0.02
1656.00000;0.59142;0.02
1657.00000;0.594736;0.02
1658.00000;0.594848;0.02
1659.00000;0.60042;0.02
1660.00000;0.593985;0.02
1661.00000;0.600626;0.02
1662.00000;0.591344;0.02
1663.00000;0.591532;0.02
1664.00000;0.588033;0.02
1665.00000;0.589344;0.02
1666.00000;0.588967;0.02
1667.00000;0.594599;0.02
1668.00000;0.590589;0.02
1669.00000;0.599964;0.02
1670.00000;0.60056;0.02
1671.00000;0.598186;0.02
1672.00000;0.601368;0.02
1673.00000;0.600121;0.02
1674.00000;0.592715;0.02
1675.00000;0.600252;0.02
1676.00000;0.597525;0.02
1677.00000;0.602193;0.02
1678.00000;0.603231;0.02
1679.00000;0.596227;0.02
1680.00000;0.604946;0.02
1681.00000;0.598983;0.02
1682.00000;0.601751;0.02
1683.00000;0.601032;0.02
1684.00000;0.597691;0.02
1685.00000;0.607326;0.02
1686.00000;0.595531;0.02
1687.00000;0.599807;0.02
1688.00000;0.593865;0.02
1689.00000;0.599137;0.02
1690.00000;0.596734;0.02
1691.00000;0.597761;0.02
1692.00000;0.597978;0.02
1693.00000;0.598731;0.02
1694.00000;0.597301;0.02
1695.00000;0.59826;0.02
1696.00000;0.597473;0.02
1697.00000;0.59668;0.02
1698.00000;0.600424;0.02
1699.00000;0.597553;0.02
1700.00000;0.594874;0.02
1701.00000;0.596721;0.02
1702.00000;0.604479;0.02
1703.00000;0.600137;0.02
1704.00000;0.5997;0.02
1705.00000;0.597077;0.02
1706.00000;0.600842;0.02
1707.00000;0.594318;0.02
1708.00000;0.592515;0.02
1709.00000;0.587457;0.02
1710.00000;0.595192;0.02
1711.00000;0.590619;0.02
1712.00000;0.59529;0.02
1713.00000;0.589432;0.02
1714.00000;0.591555;0.02
1715.00000;0.593277;0.02
1716.00000;0.590479;0.02
1717.00000;0.595119;0.02
1718.00000;0.595043;0.02
1719.00000;0.593;0.02
1720.00000;0.583852;0.02
1721.00000;0.584629;0.02
1722.00000;0.579481;0.02
1723.00000;0.579055;0.02
1724.00000;0.576554;0.02
1725.00000;0.578541;0.02
1726.00000;0.58221;0.02
1727.00000;0.578891;0.02
1728.00000;0.579798;0.02
1729.00000;0.584547;0.02
1730.00000;0.58346;0.02
1731.00000;0.573057;0.02
1732.00000;0.575497;0.02
1733.00000;0.57576;0.02
1734.00000;0.566321;0.02
1735.00000;0.565031;0.02
1736.00000;0.562407;0.02
1737.00000;0.564592;0.02
1738.00000;0.564195;0.02
1739.00000;0.560888;0.02
1740.00000;0.556892;0.02
1741.00000;0.555749;0.02
1742.00000;0.555446;0.02
1743.00000;0.554801;0.02
1744.00000;0.553377;0.02
1745.00000;0.553242;0.02
1746.00000;0.549991;0.02
1747.00000;0.547848;0.02
1748.00000;0.554444;0.02
1749.00000;0.550151;0.02
1750.00000;0.54839;0.02
1751.00000;0.553504;0.02
1752.00000;0.548493;0.02
1753.00000;0.551769;0.02
1754.00000;0.551893;0.02
1755.00000;0.542369;0.02
1756.00000;0.541898;0.02
1757.00000;0.545489;0.02
1758.00000;0.546611;0.02
1759.00000;0.549265;0.02
1760.00000;0.543231;0.02
1761.00000;0.535761;0.02
1762.00000;0.536387;0.02
1763.00000;0.526415;0.02
1764.00000;0.512582;0.02
1765.00000;0.512281;0.02
1766.00000;0.512441;0.02
1767.00000;0.51291;0.02
1768.00000;0.512332;0.02
1769.00000;0.512794;0.02
1770.00000;0.514755;0.02
1771.00000;0.514387;0.02
1772.00000;0.502972;0.02
1773.00000;0.499108;0.02
1774.00000;0.486072;0.02
1775.00000;0.47068;0.02
1776.00000;0.47277;0.02
1777.00000;0.461968;0.02
1778.00000;0.446945;0.02
1779.00000;0.450067;0.02
1780.00000;0.445187;0.02
1781.00000;0.44084;0.02
1782.00000;0.438566;0.02
1783.00000;0.428999;0.02
1784.00000;0.432197;0.02
1785.00000;0.4341;0.02
1786.00000;0.428848;0.02
1787.00000;0.430809;0.02
1788.00000;0.431145;0.02
1789.00000;0.411485;0.02
1790.00000;0.414148;0.02
1791.00000;0.392844;0.02
1792.00000;0.389903;0.02
1793.00000;0.364719;0.02
1794.00000;0.347764;0.02
1795.00000;0.345984;0.02
1796.00000;0.318474;0.02
1797.00000;0.29321;0.02
1798.00000;0.295702;0.02
1799.00000;0.244944;0.02
1800.00000;0.245991;0.02
1801.00000;0.212538;0.02
1802.00000;0.192862;0.02
1803.00000;0.194373;0.02
1804.00000;0.188713;0.02
1805.00000;0.18546;0.02
1806.00000;0.168669;0.02
1807.00000;0.166126;0.02
1808.00000;0.156635;0.02
1809.00000;0.132678;0.02
1810.00000;0.114092;0.02
1811.00000;0.115619;0.02
1812.00000;0.0971125;0.02
1813.00000;0.0967197;0.02
1814.00000;0.0852851;0.02
1815.00000;0.0631737;0.02
1816.00000;0.0631718;0.02
1817.00000;0.0573756;0.02
1818.00000;0.0524236;0.02
1819.00000;0.0427051;0.02
1820.00000;0.0375922;0.02
1821.00000;0.0375902;0.02
1822.00000;0.0339797;0.02
1823.00000;0.0348316;0.02
1824.00000;0.0298668;0.02
1825.00000;0.0168535;0.02
1826.00000;0.0168709;0.02
1827.00000;0.0111263;0.02
1828.00000;0.00971073;0.02
1829.00000;0.0047132;0.02
1830.00000;0.00271185;0.02
1831.00000;0.00273195;0.02
1832.00000;0.00168416;0.02
1833.00000;0.0015731;0.02
1834.00000;0.000854237;0.02
1835.00000;0.000465032;0.02
1836.00000;0.000392499;0.02
1837.00000;0.000275523;0.02
1838.00000;0.000327022;0.02
1839.00000;0.000266354;0.02
1840.00000;0.000459028;0.02
1841.00000;0.000502221;0.02
1842.00000;0.000790032;0.02
1843.00000;0.000754288;0.02
1844.00000;0.000935265;0.02
1845.00000;0.000880816;0.02
1846.00000;0.000751005;0.02
1847.00000;0.00055135;0.02
1848.00000;0.000607021;0.02
1849.00000;0.000540135;0.02
1850.00000;0.000518366;0.02
1851.00000;0.000517158;0.02
1852.00000;0.000568276;0.02
1853.00000;0.000550714;0.02
1854.00000;0.000499854;0.02
1855.00000;0.000590033;0.02
1856.00000;0.000536574;0.02
1857.00000;0.000612632;0.02
1858.00000;0.000764237;0.02
1859.00000;0.00155498;0.02
1860.00000;0.00152016;0.02
1861.00000;0.00274548;0.02
1862.00000;0.00258955;0.02
1863.00000;0.00289006;0.02
1864.00000;0.00238642;0.02
1865.00000;0.0024074;0.02
1866.00000;0.00115304;0.02
1867.00000;0.00109966;0.02
1868.00000;0.000357808;0.02
1869.00000;0.000344419;0.02
1870.00000;0.000139505;0.02
1871.00000;7.91717e-05;0.02
1872.00000;0.000115538;0.02
1873.00000;0.000106204;0.02
1874.00000;0.000157074;0.02
1875.00000;0.00039122;0.02
1876.00000;0.000382009;0.02
1877.00000;0.00152609;0.02
1878.00000;0.00351791;0.02
1879.00000;0.0034459;0.02
1880.00000;0.00587118;0.02
1881.00000;0.00595703;0.02
1882.00000;0.00828382;0.02
1883.00000;0.00892805;0.02
1884.00000;0.0104039;0.02
1885.00000;0.0104521;0.02
1886.00000;0.010566;0.02
1887.00000;0.0108242;0.02
1888.00000;0.0108323;0.02
1889.00000;0.00844746;0.02
1890.00000;0.00844194;0.02
1891.00000;0.00737696;0.02
1892.00000;0.00733586;0.02
1893.00000;0.00645912;0.02
1894.00000;0.00562435;0.02
1895.00000;0.00537024;0.02
1896.00000;0.00360668;0.02
1897.00000;0.00363809;0.02
1898.00000;0.00180793;0.02
1899.00000;0.00184806;0.02
1900.00000;0.000968846;0.02
1901.00000;0.000910034;0.02
1902.00000;0.000774091;0.02
1903.00000;0.00107591;0.02
1904.00000;0.0010711;0.02
1905.00000;0.00177324;0.02
1906.00000;0.00172423;0.02
1907.00000;0.00274033;0.02
1908.00000;0.00268298;0.02
1909.00000;0.00296519;0.02
1910.00000;0.00278474;0.02
1911.00000;0.00301189;0.02
1912.00000;0.00308908;0.02
1913.00000;0.00417813;0.02
1914.00000;0.00564275;0.02
1915.00000;0.00555544;0.02
1916.00000;0.0109135;0.02
1917.00000;0.0109217;0.02
1918.00000;0.0149201;0.02
1919.00000;0.0149743;0.02
1920.00000;0.021194;0.02
1921.00000;0.0211798;0.02
1922.00000;0.0259935;0.02
1923.00000;0.0274808;0.02
1924.00000;0.0296956;0.02
1925.00000;0.0309064;0.02
1926.00000;0.0307714;0.02
1927.00000;0.0366369;0.02
1928.00000;0.0366258;0.02
1929.00000;0.0403296;0.02
1930.00000;0.0409756;0.02
1931.00000;0.0548077;0.02
1932.00000;0.0551551;0.02
1933.00000;0.0620673;0.02
1934.00000;0.066839;0.02
1935.00000;0.0764114;0.02
1936.00000;0.0757901;0.02
1937.00000;0.079611;0.02
1938.00000;0.0887715;0.02
1939.00000;0.0900482;0.02
1940.00000;0.0969795;0.02
1941.00000;0.0951769;0.02
1942.00000;0.109803;0.02
1943.00000;0.11122;0.02
1944.00000;0.113678;0.02
1945.00000;0.117418;0.02
1946.00000;0.125806;0.02
1947.00000;0.125852;0.02
1948.00000;0.127356;0.02
1949.00000;0.128067;0.02
1950.00000;0.126344;0.02
1951.00000;0.130161;0.02
1952.00000;0.118193;0.02
1953.00000;0.118337;0.02
1954.00000;0.115115;0.02
1955.00000;0.115035;0.02
1956.00000;0.11253;0.02
1957.00000;0.120289;0.02
1958.00000;0.120526;0.02
1959.00000;0.135731;0.02
1960.00000;0.137705;0.02
1961.00000;0.156849;0.02
1962.00000;0.157585;0.02
1963.00000;0.180087;0.02
1964.00000;0.179959;0.02
1965.00000;0.206081;0.02
1966.00000;0.210432;0.02
1967.00000;0.231661;0.02
1968.00000;0.23321;0.02
1969.00000;0.267279;0.02
1970.00000;0.266786;0.02
1971.00000;0.297047;0.02
1972.00000;0.297984;0.02
1973.00000;0.323159;0.02
1974.00000;0.32646;0.02
1975.00000;0.341336;0.02
1976.00000;0.347212;0.02
1977.00000;0.370152;0.02
1978.00000;0.367107;0.02
1979.00000;0.382833;0.02
1980.00000;0.387356;0.02
1981.00000;0.393604;0.02
1982.00000;0.393335;0.02
1983.00000;0.397988;0.02
1984.00000;0.40438;0.02
1985.00000;0.406207;0.02
1986.00000;0.406758;0.02
1987.00000;0.408031;0.02
1988.00000;0.412165;0.02
1989.00000;0.415045;0.02
1990.00000;0.407949;0.02
1991.00000;0.40052;0.02
1992.00000;0.402101;0.02
1993.00000;0.394012;0.02
1994.00000;0.394315;0.02
1995.00000;0.348163;0.02
1996.00000;0.352238;0.02
1997.00000;0.275583;0.02
1998.00000;0.275395;0.02
1999.00000;0.188425;0.02
2000.00000;0.190632;0.02
2001.00000;0.130623;0.02
2002.00000;0.13089;0.02
2003.00000;0.106296;0.02
2004.00000;0.104889;0.02
2005.00000;0.102895;0.02
2006.00000;0.104106;0.02
2007.00000;0.116504;0.02
2008.00000;0.117893;0.02
2009.00000;0.126046;0.02
2010.00000;0.124993;0.02
2011.00000;0.131417;0.02
2012.00000;0.130786;0.02
2013.00000;0.138919;0.02
2014.00000;0.13819;0.02
2015.00000;0.151364;0.02
2016.00000;0.151179;0.02
2017.00000;0.175724;0.02
2018.00000;0.178774;0.02
2019.00000;0.21575;0.02
2020.00000;0.218513;0.02
2021.00000;0.268968;0.02
2022.00000;0.27042;0.02
2023.00000;0.320349;0.02
2024.00000;0.320873;0.02
2025.00000;0.366769;0.02
2026.00000;0.371977;0.02
2027.00000;0.396807;0.02
2028.00000;0.400353;0.02
2029.00000;0.416962;0.02
2030.00000;0.419722;0.02
2031.00000;0.438905;0.02
2032.00000;0.440275;0.02
2033.00000;0.448378;0.02
2034.00000;0.452419;0.02
2035.00000;0.463063;0.02
2036.00000;0.458831;0.02
2037.00000;0.461801;0.02
2038.00000;0.466103;0.02
2039.00000;0.464877;0.02
2040.00000;0.463529;0.02
2041.00000;0.453842;0.02
2042.00000;0.454606;0.02
2043.00000;0.441907;0.02
2044.00000;0.444051;0.02
2045.00000;0.418291;0.02
2046.00000;0.41886;0.02
2047.00000;0.423817;0.02
2048.00000;0.392194;0.02
2049.00000;0.390203;0.02
2050.00000;0.344729;0.02
2051.00000;0.346881;0.02
2052.00000;0.316654;0.02
2053.00000;0.318737;0.02
2054.00000;0.310792;0.02
2055.00000;0.31461;0.02
2056.00000;0.327751;0.02
2057.00000;0.325917;0.02
2058.00000;0.343069;0.02
2059.00000;0.341488;0.02
2060.00000;0.346788;0.02
2061.00000;0.344773;0.02
2062.00000;0.34576;0.02
2063.00000;0.351725;0.02
2064.00000;0.346112;0.02
2065.00000;0.348118;0.02
2066.00000;0.348261;0.02
2067.00000;0.350921;0.02
2068.00000;0.354682;0.02
2069.00000;0.36999;0.02
2070.00000;0.369198;0.02
2071.00000;0.389968;0.02
2072.00000;0.395033;0.02
2073.00000;0.422064;0.02
2074.00000;0.426034;0.02
2075.00000;0.445133;0.02
2076.00000;0.446674;0.02
2077.00000;0.465114;0.02
2078.00000;0.456358;0.02
2079.00000;0.46218;0.02
2080.00000;0.473646;0.02
2081.00000;0.475256;0.02
2082.00000;0.47622;0.02
2083.00000;0.480216;0.02
2084.00000;0.482898;0.02
2085.00000;0.488423;0.02
2086.00000;0.499003;0.02
2087.00000;0.492802;0.02
2088.00000;0.500613;0.02
2089.00000;0.505537;0.02
2090.00000;0.508895;0.02
2091.00000;0.511682;0.02
2092.00000;0.503429;0.02
2093.00000;0.510366;0.02
2094.00000;0.511864;0.02
2095.00000;0.517818;0.02
2096.00000;0.522531;0.02
2097.00000;0.525422;0.02
2098.00000;0.520712;0.02
2099.00000;0.527862;0.02
2100.00000;0.523763;0.02
2101.00000;0.533902;0.02
2102.00000;0.537574;0.02
2103.00000;0.532357;0.02
2104.00000;0.53911;0.02
2105.00000;0.53591;0.02
2106.00000;0.544608;0.02
2107.00000;0.542905;0.02
2108.00000;0.537384;0.02
2109.00000;0.545427;0.02
2110.00000;0.543949;0.02
2111.00000;0.542056;0.02
2112.00000;0.54344;0.02
2113.00000;0.541931;0.02
2114.00000;0.542911;0.02
2115.00000;0.542852;0.02
2116.00000;0.535782;0.02
2117.00000;0.547603;0.02
2118.00000;0.541917;0.02
2119.00000;0.549358;0.02
2120.00000;0.551078;0.02
2121.00000;0.555524;0.02
2122.00000;0.559518;0.02
2123.00000;0.555391;0.02
2124.00000;0.556636;0.02
2125.00000;0.560495;0.02
2126.00000;0.559054;0.02
2127.00000;0.566606;0.02
2128.00000;0.570014;0.02
2129.00000;0.566742;0.02
2130.00000;0.572575;0.02
2131.00000;0.560269;0.02
2132.00000;0.56049;0.02
2133.00000;0.572327;0.02
2134.00000;0.562325;0.02
2135.00000;0.571413;0.02
2136.00000;0.567063;0.02
2137.00000;0.569029;0.02
2138.00000;0.572128;0.02
2139.00000;0.566594;0.02
2140.00000;0.567372;0.02
2141.00000;0.565562;0.02
2142.00000;0.564772;0.02
2143.00000;0.560766;0.02
2144.00000;0.553801;0.02
2145.00000;0.552635;0.02
2146.00000;0.538049;0.02
2147.00000;0.541139;0.02
2148.00000;0.538305;0.02
2149.00000;0.523349;0.02
2150.00000;0.534774;0.02
2151.00000;0.524862;0.02
2152.00000;0.521755;0.02
2153.00000;0.52324;0.02
2154.00000;0.519162;0.02
2155.00000;0.515118;0.02
2156.00000;0.518987;0.02
2157.00000;0.516996;0.02
2158.00000;0.526667;0.02
2159.00000;0.519239;0.02
2160.00000;0.515565;0.02
2161.00000;0.519332;0.02
2162.00000;0.519188;0.02
2163.00000;0.520011;0.02
2164.00000;0.51665;0.02
2165.00000;0.516525;0.02
2166.00000;0.513236;0.02
2167.00000;0.519562;0.02
2168.00000;0.515825;0.02
2169.00000;0.511362;0.02
2170.00000;0.516493;0.02
2171.00000;0.508795;0.02
2172.00000;0.509273;0.02
2173.00000;0.513824;0.02
2174.00000;0.508952;0.02
2175.00000;0.509589;0.02
2176.00000;0.5025;0.02
2177.00000;0.505938;0.02
2178.00000;0.508682;0.02
2179.00000;0.502292;0.02
2180.00000;0.495596;0.02
2181.00000;0.501081;0.02
2182.00000;0.493595;0.02
2183.00000;0.493674;0.02
2184.00000;0.495233;0.02
2185.00000;0.489752;0.02
2186.00000;0.500349;0.02
2187.00000;0.501212;0.02
2188.00000;0.502203;0.02
2189.00000;0.499252;0.02
2190.00000;0.49983;0.02
2191.00000;0.499307;0.02
2192.00000;0.496712;0.02
2193.00000;0.48709;0.02
2194.00000;0.483775;0.02
2195.00000;0.489319;0.02
2196.00000;0.474953;0.02
2197.00000;0.474908;0.02
2198.00000;0.468585;0.02
2199.00000;0.468773;0.02
2200.00000;0.469101;0.02
2201.00000;0.464045;0.02
2202.00000;0.466682;0.02
2203.00000;0.482139;0.02
2204.00000;0.48829;0.02
2205.00000;0.480567;0.02
2206.00000;0.498558;0.02
2207.00000;0.493576;0.02
2208.00000;0.50806;0.02
2209.00000;0.507654;0.02
2210.00000;0.518639;0.02
2211.00000;0.516112;0.02
2212.00000;0.512594;0.02
2213.00000;0.514768;0.02
2214.00000;0.514001;0.02
2215.00000;0.517819;0.02
2216.00000;0.510719;0.02
2217.00000;0.520527;0.02
2218.00000;0.511753;0.02
2219.00000;0.513341;0.02
2220.00000;0.515137;0.02
2221.00000;0.516368;0.02
2222.00000;0.51343;0.02
2223.00000;0.51131;0.02
2224.00000;0.516965;0.02
2225.00000;0.512539;0.02
2226.00000;0.510782;0.02
2227.00000;0.508092;0.02
2228.00000;0.507973;0.02
2229.00000;0.51061;0.02
2230.00000;0.504087;0.02
2231.00000;0.500946;0.02
2232.00000;0.506083;0.02
2233.00000;0.503282;0.02
2234.00000;0.503994;0.02
2235.00000;0.502564;0.02
2236.00000;0.50248;0.02
2237.00000;0.507251;0.02
2238.00000;0.495842;0.02
2239.00000;0.498162;0.02
2240.00000;0.494528;0.02
2241.00000;0.496151;0.02
2242.00000;0.498488;0.02
2243.00000;0.497805;0.02
2244.00000;0.49698;0.02
2245.00000;0.491931;0.02
2246.00000;0.491017;0.02
2247.00000;0.498688;0.02
2248.00000;0.492242;0.02
2249.00000;0.492988;0.02
2250.00000;0.489485;0.02
2251.00000;0.497184;0.02
2252.00000;0.487323;0.02
2253.00000;0.489755;0.02
2254.00000;0.486852;0.02
2255.00000;0.479059;0.02
2256.00000;0.475119;0.02
2257.00000;0.482597;0.02
2258.00000;0.477371;0.02
2259.00000;0.477357;0.02
2260.00000;0.475427;0.02
2261.00000;0.47794;0.02
2262.00000;0.47853;0.02
2263.00000;0.478147;0.02
2264.00000;0.479162;0.02
2265.00000;0.476309;0.02
2266.00000;0.47805;0.02
2267.00000;0.480627;0.02
2268.00000;0.476144;0.02
2269.00000;0.476504;0.02
2270.00000;0.480591;0.02
2271.00000;0.476739;0.02
2272.00000;0.48319;0.02
2273.00000;0.478109;0.02
2274.00000;0.479499;0.02
2275.00000;0.475915;0.02
2276.00000;0.478923;0.02
2277.00000;0.477702;0.02
2278.00000;0.481529;0.02
2279.00000;0.478571;0.02
2280.00000;0.482558;0.02
2281.00000;0.478214;0.02
2282.00000;0.47923;0.02
2283.00000;0.476973;0.02
2284.00000;0.470084;0.02
2285.00000;0.470664;0.02
2286.00000;0.466801;0.02
2287.00000;0.471172;0.02
2288.00000;0.463227;0.02
2289.00000;0.456344;0.02
2290.00000;0.457925;0.02
2291.00000;0.452165;0.02
2292.00000;0.451255;0.02
2293.00000;0.453211;0.02
2294.00000;0.448348;0.02
2295.00000;0.44456;0.02
2296.00000;0.440226;0.02
2297.00000;0.44901;0.02
2298.00000;0.442763;0.02
2299.00000;0.444151;0.02
2300.00000;0.444467;0.02
2301.00000;0.444015;0.02
2302.00000;0.445909;0.02
2303.00000;0.448417;0.02
2304.00000;0.450225;0.02
2305.00000;0.455889;0.02
2306.00000;0.456751;0.02
2307.00000;0.463717;0.02
2308.00000;0.46142;0.02
2309.00000;0.457161;0.02
2310.00000;0.457246;0.02
2311.00000;0.458265;0.02
2312.00000;0.457392;0.02
2313.00000;0.446746;0.02
2314.00000;0.449581;0.02
2315.00000;0.432029;0.02
2316.00000;0.42996;0.02
2317.00000;0.429691;0.02
2318.00000;0.441728;0.02
2319.00000;0.440486;0.02
2320.00000;0.425117;0.02
2321.00000;0.431138;0.02
2322.00000;0.428238;0.02
2323.00000;0.438242;0.02
2324.00000;0.436984;0.02
2325.00000;0.437979;0.02
2326.00000;0.442466;0.02
2327.00000;0.43951;0.02
2328.00000;0.43684;0.02
2329.00000;0.441908;0.02
2330.00000;0.438011;0.02
2331.00000;0.439822;0.02
2332.00000;0.43169;0.02
2333.00000;0.430703;0.02
2334.00000;0.421365;0.02
2335.00000;0.415887;0.02
2336.00000;0.416427;0.02
2337.00000;0.404763;0.02
2338.00000;0.406802;0.02
2339.00000;0.399243;0.02
2340.00000;0.394152;0.02
2341.00000;0.396063;0.02
2342.00000;0.392609;0.02
2343.00000;0.388245;0.02
2344.00000;0.387636;0.02
2345.00000;0.382352;0.02
2346.00000;0.385671;0.02
2347.00000;0.389926;0.02
2348.00000;0.384833;0.02
2349.00000;0.386509;0.02
2350.00000;0.38775;0.02
2351.00000;0.389601;0.02
2352.00000;0.392116;0.02
2353.00000;0.395282;0.02
2354.00000;0.400083;0.02
2355.00000;0.402305;0.02
2356.00000;0.413642;0.02
2357.00000;0.409408;0.02
2358.00000;0.408928;0.02
2359.00000;0.406543;0.02
2360.00000;0.410395;0.02
2361.00000;0.406904;0.02
2362.00000;0.400798;0.02
2363.00000;0.405042;0.02
2364.00000;0.404846;0.02
2365.00000;0.386437;0.02
2366.00000;0.38468;0.02
2367.00000;0.369077;0.02
2368.00000;0.370314;0.02
2369.00000;0.372639;0.02
2370.00000;0.364286;0.02
2371.00000;0.364425;0.02
2372.00000;0.35868;0.02
2373.00000;0.368199;0.02
2374.00000;0.365759;0.02
2375.00000;0.366079;0.02
2376.00000;0.369575;0.02
2377.00000;0.368205;0.02
2378.00000;0.369046;0.02
2379.00000;0.378993;0.02
2380.00000;0.377799;0.02
2381.00000;0.37832;0.02
2382.00000;0.375655;0.02
2383.00000;0.374764;0.02
2384.00000;0.381993;0.02
2385.00000;0.378611;0.02
2386.00000;0.377411;0.02
2387.00000;0.384233;0.02
2388.00000;0.381239;0.02
2389.00000;0.381453;0.02
2390.00000;0.381892;0.02
2391.00000;0.379117;0.02
2392.00000;0.379395;0.02
2393.00000;0.386551;0.02
2394.00000;0.382043;0.02
2395.00000;0.386653;0.02
2396.00000;0.384633;0.02
2397.00000;0.386569;0.02
2398.00000;0.384914;0.02
2399.00000;0.381488;0.02
2400.00000;0.378748;0.02
2401.00000;0.377625;0.02
2402.00000;0.380373;0.02
2403.00000;0.380609;0.02
2404.00000;0.367235;0.02
2405.00000;0.373951;0.02
2406.00000;0.36342;0.02
2407.00000;0.35777;0.02
2408.00000;0.358659;0.02
2409.00000;0.363364;0.02
2410.00000;0.353076;0.02
2411.00000;0.351636;0.02
2412.00000;0.346454;0.02
2413.00000;0.340711;0.02
2414.00000;0.344566;0.02
2415.00000;0.344054;0.02
2416.00000;0.346498;0.02
2417.00000;0.346408;0.02
2418.00000;0.344715;0.02
2419.00000;0.359567;0.02
2420.00000;0.361043;0.02
2421.00000;0.358698;0.02
2422.00000;0.369203;0.02
2423.00000;0.371922;0.02
2424.00000;0.367631;0.02
2425.00000;0.372664;0.02
2426.00000;0.372437;0.02
2427.00000;0.367901;0.02
2428.00000;0.368598;0.02
2429.00000;0.369874;0.02
2430.00000;0.367825;0.02
2431.00000;0.36404;0.02
2432.00000;0.362295;0.02
2433.00000;0.359847;0.02
2434.00000;0.352248;0.02
2435.00000;0.357995;0.02
2436.00000;0.351158;0.02
2437.00000;0.355412;0.02
2438.00000;0.344774;0.02
2439.00000;0.348223;0.02
2440.00000;0.339058;0.02
2441.00000;0.337898;0.02
2442.00000;0.338958;0.02
2443.00000;0.326529;0.02
2444.00000;0.319845;0.02
2445.00000;0.306232;0.02
2446.00000;0.308102;0.02
2447.00000;0.3065;0.02
2448.00000;0.30185;0.02
2449.00000;0.298163;0.02
2450.00000;0.301008;0.02
2451.00000;0.302532;0.02
2452.00000;0.303428;0.02
2453.00000;0.30572;0.02
2454.00000;0.317634;0.02
2455.00000;0.322195;0.02
2456.00000;0.319049;0.02
2457.00000;0.323243;0.02
2458.00000;0.325172;0.02
2459.00000;0.327529;0.02
2460.00000;0.320824;0.02
2461.00000;0.31636;0.02
2462.00000;0.31239;0.02
2463.00000;0.312912;0.02
2464.00000;0.298826;0.02
2465.00000;0.298019;0.02
2466.00000;0.303156;0.02
2467.00000;0.279449;0.02
2468.00000;0.279428;0.02
2469.00000;0.279202;0.02
2470.00000;0.252165;0.02
2471.00000;0.252368;0.02
2472.00000;0.251565;0.02
2473.00000;0.242614;0.02
2474.00000;0.241123;0.02
2475.00000;0.240798;0.02
2476.00000;0.210248;0.02
2477.00000;0.213982;0.02
2478.00000;0.209594;0.02
2479.00000;0.185462;0.02
2480.00000;0.182125;0.02
2481.00000;0.185767;0.02
2482.00000;0.158487;0.02
2483.00000;0.161459;0.02
2484.00000;0.160025;0.02
2485.00000;0.141744;0.02
2486.00000;0.141794;0.02
2487.00000;0.137757;0.02
2488.00000;0.134325;0.02
2489.00000;0.133035;0.02
2490.00000;0.133074;0.02
2491.00000;0.136196;0.02
2492.00000;0.139119;0.02
2493.00000;0.137136;0.02
2494.00000;0.137259;0.02
2495.00000;0.13859;0.02
2496.00000;0.138964;0.02
2497.00000;0.146472;0.02
2498.00000;0.146485;0.02
2499.00000;0.142443;0.02
2500.00000;0.139441;0.02
